* Sea-Bird SBE37 Data File:
* FileName = C:\Users\mod\Desktop\NISKINe\SBE37\SBE37_2864_NISKINE.asc
* Software Version 1.59
* Temperature SN = 2864
* Conductivity SN = 2864
* System UpLoad Time = Oct 10 2020 23:40:32
* ds
* SBE37-SM V 2.6b  SERIAL NO. 2864    10 Oct 2020  23:41:37
* not logging: received stop command
* sample interval = 240 seconds
* samplenumber = 185395, free = 5255
* do not transmit real-time data
* do not output salinity with each sample
* do not output sound velocity with each sample
* do not store time with each sample
* number of samples to average = 1
* serial sync mode disabled
* wait time after serial sync sampling = 30 seconds
* internal pump not installed
* temperature = 21.54 deg C

* S>
* SBE37-SM V 2.6b  2864
* temperature:  15-jan-19
*     TA0 = -1.737546e-05
*     TA1 = 2.781091e-04
*     TA2 = -2.475074e-06
*     TA3 = 1.587627e-07
* conductivity:  15-jan-19
*     G = -1.004162e+00
*     H = 1.413346e-01
*     I = -5.614735e-05
*     J = 2.844608e-05
*     CPCOR = -9.570000e-08
*     CTCOR = 3.250000e-06
*     WBOTC = -1.073639e-05
* pressure S/N 3221, range = 2900 psia:  21-dec-18
*     PA0 = 8.119924e-01
*     PA1 = 1.378379e-01
*     PA2 = -3.675136e-08
*     PTCA0 = -8.662321e+01
*     PTCA1 = 3.112898e-01
*     PTCA2 = -2.347618e-03
*     PTCSB0 = 2.511700e+01
*     PTCSB1 = -2.800000e-03
*     PTCSB2 = 0.000000e+00
*     POFFSET = 0.000000e+00
* rtc:  15-jan-19
*     RTCA0 = 1.000001e+00
*     RTCA1 = 1.662362e-06
*     RTCA2 = -3.357291e-08

* S> 
# nquan = 4
# nvalues =   185394
# units = metric
# name 0 = t090: temperature, ITS-90 [deg C]
# name 1 = c0S/m: conductivity [S/m]
# name 2 = pr: pressure [db]
# name 3 = flag:  0.000e+00
# span 0 = 6.2859, 31.9217            
# span 1 = -0.00007, 3.89971          
# span 2 = -0.831, 658.229            
# span 3 = 0.000e+00, 0.000e+00       
# interval = seconds: 240
# start_time = May 15 2019 00:00:01
# bad_flag = -9.990e-29
# file_type = ascii
*END*
    19.8204   -0.00006     -0.153  0.000e+00
    19.8180   -0.00006     -0.153  0.000e+00
    19.8147   -0.00006     -0.153  0.000e+00
    19.8120   -0.00006     -0.153  0.000e+00
    19.8091   -0.00006     -0.153  0.000e+00
    19.8056   -0.00006     -0.153  0.000e+00
    19.8037   -0.00006     -0.153  0.000e+00
    19.8008   -0.00006     -0.153  0.000e+00
    19.7979   -0.00006     -0.153  0.000e+00
    19.7945   -0.00006     -0.153  0.000e+00
    19.7922   -0.00006     -0.153  0.000e+00
    19.7892   -0.00006     -0.153  0.000e+00
    19.7870   -0.00006     -0.153  0.000e+00
    19.7843   -0.00006     -0.153  0.000e+00
    19.7817   -0.00006     -0.153  0.000e+00
    19.7793   -0.00006     -0.153  0.000e+00
    19.7768   -0.00006     -0.153  0.000e+00
    19.7744   -0.00006     -0.153  0.000e+00
    19.7720   -0.00006     -0.153  0.000e+00
    19.7701   -0.00006     -0.153  0.000e+00
    19.7677   -0.00006     -0.153  0.000e+00
    19.7648   -0.00006     -0.153  0.000e+00
    19.7637   -0.00006     -0.153  0.000e+00
    19.7614   -0.00006     -0.153  0.000e+00
    19.7595   -0.00006     -0.153  0.000e+00
    19.7583   -0.00006     -0.153  0.000e+00
    19.7562   -0.00006     -0.153  0.000e+00
    19.7540   -0.00006     -0.153  0.000e+00
    19.7526   -0.00006     -0.153  0.000e+00
    19.7510   -0.00006     -0.153  0.000e+00
    19.7492   -0.00006     -0.153  0.000e+00
    19.7472   -0.00006     -0.153  0.000e+00
    19.7451   -0.00006     -0.153  0.000e+00
    19.7445   -0.00006     -0.153  0.000e+00
    19.7431   -0.00006     -0.153  0.000e+00
    19.7410   -0.00006     -0.153  0.000e+00
    19.7391   -0.00006     -0.153  0.000e+00
    19.7376   -0.00006     -0.153  0.000e+00
    19.7361   -0.00006     -0.153  0.000e+00
    19.7337   -0.00006     -0.153  0.000e+00
    19.7331   -0.00006     -0.153  0.000e+00
    19.7311   -0.00006     -0.153  0.000e+00
    19.7282   -0.00006     -0.153  0.000e+00
    19.7273   -0.00006     -0.153  0.000e+00
    19.7265   -0.00006     -0.153  0.000e+00
    19.7247   -0.00006     -0.153  0.000e+00
    19.7232   -0.00006     -0.153  0.000e+00
    19.7209   -0.00006     -0.153  0.000e+00
    19.7203   -0.00006     -0.153  0.000e+00
    19.7192   -0.00006     -0.153  0.000e+00
    19.7174   -0.00006     -0.153  0.000e+00
    19.7155   -0.00006     -0.153  0.000e+00
    19.7140   -0.00006     -0.153  0.000e+00
    19.7135   -0.00006     -0.153  0.000e+00
    19.7117   -0.00006     -0.153  0.000e+00
    19.7100   -0.00006     -0.153  0.000e+00
    19.7092   -0.00006     -0.153  0.000e+00
    19.7079   -0.00006     -0.153  0.000e+00
    19.7065   -0.00006     -0.153  0.000e+00
    19.7056   -0.00006     -0.153  0.000e+00
    19.7050   -0.00006     -0.153  0.000e+00
    19.7034   -0.00006     -0.153  0.000e+00
    19.7027   -0.00006     -0.153  0.000e+00
    19.7014   -0.00006     -0.153  0.000e+00
    19.7003   -0.00006     -0.153  0.000e+00
    19.6989   -0.00006     -0.153  0.000e+00
    19.6989   -0.00006     -0.153  0.000e+00
    19.6973   -0.00006     -0.153  0.000e+00
    19.6965   -0.00006     -0.153  0.000e+00
    19.6962   -0.00006     -0.153  0.000e+00
    19.6957   -0.00006     -0.153  0.000e+00
    19.6955   -0.00006     -0.153  0.000e+00
    19.6960   -0.00006     -0.153  0.000e+00
    19.6961   -0.00006     -0.153  0.000e+00
    19.6966   -0.00006     -0.153  0.000e+00
    19.6974   -0.00006     -0.153  0.000e+00
    19.6983   -0.00006     -0.153  0.000e+00
    19.6999   -0.00006     -0.153  0.000e+00
    19.7010   -0.00006     -0.153  0.000e+00
    19.7025   -0.00006     -0.153  0.000e+00
    19.7032   -0.00006     -0.153  0.000e+00
    19.7047   -0.00006     -0.153  0.000e+00
    19.7062   -0.00006     -0.153  0.000e+00
    19.7083   -0.00006     -0.153  0.000e+00
    19.7097   -0.00006     -0.153  0.000e+00
    19.7112   -0.00006     -0.153  0.000e+00
    19.7132   -0.00006     -0.153  0.000e+00
    19.7144   -0.00006     -0.153  0.000e+00
    19.7172   -0.00006     -0.153  0.000e+00
    19.7189   -0.00006     -0.153  0.000e+00
    19.7218   -0.00006     -0.153  0.000e+00
    19.7242   -0.00006     -0.153  0.000e+00
    19.7263   -0.00006     -0.153  0.000e+00
    19.7289   -0.00006     -0.153  0.000e+00
    19.7323   -0.00006     -0.153  0.000e+00
    19.7355   -0.00006     -0.153  0.000e+00
    19.7390   -0.00006     -0.153  0.000e+00
    19.7408   -0.00006     -0.153  0.000e+00
    19.7444   -0.00006     -0.153  0.000e+00
    19.7472   -0.00006     -0.153  0.000e+00
    19.7519   -0.00006     -0.153  0.000e+00
    19.7544   -0.00006     -0.153  0.000e+00
    19.7574   -0.00006     -0.153  0.000e+00
    19.7613   -0.00006     -0.153  0.000e+00
    19.7665   -0.00006     -0.153  0.000e+00
    19.7693   -0.00006     -0.153  0.000e+00
    19.7731   -0.00006     -0.153  0.000e+00
    19.7769   -0.00006     -0.153  0.000e+00
    19.7826   -0.00006     -0.153  0.000e+00
    19.7860   -0.00006     -0.153  0.000e+00
    19.7901   -0.00006     -0.153  0.000e+00
    19.7961   -0.00006     -0.153  0.000e+00
    19.8006   -0.00006     -0.153  0.000e+00
    19.8050   -0.00006     -0.153  0.000e+00
    19.8080   -0.00006     -0.153  0.000e+00
    19.8116   -0.00006     -0.153  0.000e+00
    19.8158   -0.00006     -0.153  0.000e+00
    19.8190   -0.00005     -0.153  0.000e+00
    19.8222   -0.00006     -0.153  0.000e+00
    19.8260   -0.00006     -0.153  0.000e+00
    19.8289   -0.00006     -0.153  0.000e+00
    19.8322   -0.00006     -0.153  0.000e+00
    19.8357   -0.00006     -0.153  0.000e+00
    19.8396   -0.00006     -0.153  0.000e+00
    19.8438   -0.00006     -0.153  0.000e+00
    19.8481   -0.00006     -0.153  0.000e+00
    19.8516   -0.00006     -0.153  0.000e+00
    19.8557   -0.00006     -0.153  0.000e+00
    19.8595   -0.00006     -0.153  0.000e+00
    19.8641   -0.00006     -0.153  0.000e+00
    19.8683   -0.00006     -0.153  0.000e+00
    19.8728   -0.00006     -0.153  0.000e+00
    19.8775   -0.00006     -0.153  0.000e+00
    19.8822   -0.00006     -0.153  0.000e+00
    19.8862   -0.00006     -0.153  0.000e+00
    19.8914   -0.00006     -0.153  0.000e+00
    19.8956   -0.00006     -0.153  0.000e+00
    19.9001   -0.00006     -0.153  0.000e+00
    19.9052   -0.00006     -0.153  0.000e+00
    19.9102   -0.00006     -0.153  0.000e+00
    19.9150   -0.00006     -0.153  0.000e+00
    19.9200   -0.00006     -0.153  0.000e+00
    19.9250   -0.00006     -0.153  0.000e+00
    19.9304   -0.00006     -0.153  0.000e+00
    19.9352   -0.00006     -0.153  0.000e+00
    19.9401   -0.00006     -0.153  0.000e+00
    19.9449   -0.00006     -0.153  0.000e+00
    19.9506   -0.00006     -0.153  0.000e+00
    19.9553   -0.00006     -0.153  0.000e+00
    19.9609   -0.00006     -0.153  0.000e+00
    19.9649   -0.00006     -0.153  0.000e+00
    19.9705   -0.00006     -0.153  0.000e+00
    19.9754   -0.00006     -0.153  0.000e+00
    19.9803   -0.00006     -0.153  0.000e+00
    19.9848   -0.00006     -0.153  0.000e+00
    19.9897   -0.00006     -0.153  0.000e+00
    19.9944   -0.00006     -0.153  0.000e+00
    19.9982   -0.00006     -0.153  0.000e+00
    20.0024   -0.00006     -0.153  0.000e+00
    20.0064   -0.00006     -0.153  0.000e+00
    20.0117   -0.00006     -0.153  0.000e+00
    20.0150   -0.00006     -0.153  0.000e+00
    20.0197   -0.00006     -0.153  0.000e+00
    20.0235   -0.00006     -0.153  0.000e+00
    20.0277   -0.00006     -0.153  0.000e+00
    20.0325   -0.00006     -0.153  0.000e+00
    20.0374   -0.00006     -0.153  0.000e+00
    20.0403   -0.00006     -0.153  0.000e+00
    20.0425   -0.00006     -0.153  0.000e+00
    20.0436   -0.00006     -0.153  0.000e+00
    20.0429   -0.00006     -0.153  0.000e+00
    20.0384   -0.00006     -0.153  0.000e+00
    20.0320   -0.00006     -0.153  0.000e+00
    20.0230   -0.00006     -0.153  0.000e+00
    20.0139   -0.00006     -0.153  0.000e+00
    19.9942   -0.00006     -0.153  0.000e+00
    19.9777   -0.00006     -0.153  0.000e+00
    19.9637   -0.00006     -0.153  0.000e+00
    19.9369   -0.00006     -0.153  0.000e+00
    19.9187   -0.00006     -0.153  0.000e+00
    19.8991   -0.00006     -0.153  0.000e+00
    19.8710   -0.00006     -0.153  0.000e+00
    19.8438   -0.00006     -0.153  0.000e+00
    19.8328   -0.00006     -0.153  0.000e+00
    19.8056   -0.00006     -0.153  0.000e+00
    19.7748   -0.00006     -0.153  0.000e+00
    19.7603   -0.00005     -0.153  0.000e+00
    19.7360   -0.00006     -0.153  0.000e+00
    19.7080   -0.00006     -0.153  0.000e+00
    19.6855   -0.00006     -0.153  0.000e+00
    19.6622   -0.00006     -0.153  0.000e+00
    19.6414   -0.00006     -0.153  0.000e+00
    19.6161   -0.00005     -0.153  0.000e+00
    19.5832   -0.00006     -0.153  0.000e+00
    19.5627   -0.00005     -0.153  0.000e+00
    19.5364   -0.00006     -0.153  0.000e+00
    19.4974   -0.00006     -0.153  0.000e+00
    19.4912   -0.00005     -0.153  0.000e+00
    19.4678   -0.00006     -0.153  0.000e+00
    19.4420   -0.00006     -0.153  0.000e+00
    19.4088   -0.00005     -0.153  0.000e+00
    19.3922   -0.00006     -0.153  0.000e+00
    19.3644   -0.00006     -0.153  0.000e+00
    19.3437   -0.00005     -0.153  0.000e+00
    19.3185   -0.00005     -0.153  0.000e+00
    19.2885   -0.00005     -0.153  0.000e+00
    19.2673   -0.00005     -0.153  0.000e+00
    19.2389   -0.00006     -0.153  0.000e+00
    19.2105   -0.00005     -0.153  0.000e+00
    19.1982   -0.00006     -0.153  0.000e+00
    19.1708   -0.00005     -0.153  0.000e+00
    19.1544   -0.00005     -0.153  0.000e+00
    19.1303   -0.00006     -0.153  0.000e+00
    19.1105   -0.00006     -0.153  0.000e+00
    19.0858   -0.00005     -0.153  0.000e+00
    19.0649   -0.00005     -0.153  0.000e+00
    19.0396   -0.00005     -0.153  0.000e+00
    19.0186   -0.00005     -0.153  0.000e+00
    18.9993   -0.00005     -0.153  0.000e+00
    18.9809   -0.00005     -0.153  0.000e+00
    18.9575   -0.00006     -0.153  0.000e+00
    18.9347   -0.00005     -0.153  0.000e+00
    18.9025   -0.00006     -0.153  0.000e+00
    18.8859   -0.00005     -0.153  0.000e+00
    18.8569   -0.00006     -0.153  0.000e+00
    18.8326   -0.00005     -0.153  0.000e+00
    18.8168   -0.00005     -0.153  0.000e+00
    18.7954   -0.00005     -0.153  0.000e+00
    18.7697   -0.00005     -0.153  0.000e+00
    18.7467   -0.00005     -0.153  0.000e+00
    18.7249   -0.00005     -0.153  0.000e+00
    18.7032   -0.00005     -0.153  0.000e+00
    18.6770   -0.00006     -0.153  0.000e+00
    18.6610   -0.00006     -0.153  0.000e+00
    18.6393   -0.00006     -0.153  0.000e+00
    18.6167   -0.00005     -0.153  0.000e+00
    18.5966   -0.00005     -0.153  0.000e+00
    18.5763   -0.00005     -0.153  0.000e+00
    18.5558   -0.00005     -0.153  0.000e+00
    18.5388   -0.00005     -0.153  0.000e+00
    18.5219   -0.00005     -0.153  0.000e+00
    18.5103   -0.00005     -0.153  0.000e+00
    18.4963   -0.00005     -0.153  0.000e+00
    18.4898   -0.00005     -0.153  0.000e+00
    18.4834   -0.00005     -0.153  0.000e+00
    18.4773   -0.00005     -0.153  0.000e+00
    18.4708   -0.00005     -0.153  0.000e+00
    18.4678   -0.00005     -0.153  0.000e+00
    18.4645   -0.00005     -0.153  0.000e+00
    18.4638   -0.00005     -0.153  0.000e+00
    18.4624   -0.00005     -0.153  0.000e+00
    18.4624   -0.00005     -0.153  0.000e+00
    18.4639   -0.00005     -0.153  0.000e+00
    18.4653   -0.00005     -0.153  0.000e+00
    18.4674   -0.00005     -0.153  0.000e+00
    18.4703   -0.00005     -0.153  0.000e+00
    18.4740   -0.00005     -0.153  0.000e+00
    18.4777   -0.00005     -0.153  0.000e+00
    18.4821   -0.00005     -0.153  0.000e+00
    18.4853   -0.00005     -0.153  0.000e+00
    18.4900   -0.00005     -0.153  0.000e+00
    18.4957   -0.00005     -0.153  0.000e+00
    18.5009   -0.00005     -0.153  0.000e+00
    18.5066   -0.00005     -0.153  0.000e+00
    18.5128   -0.00005     -0.153  0.000e+00
    18.5191   -0.00005     -0.153  0.000e+00
    18.5256   -0.00005     -0.153  0.000e+00
    18.5332   -0.00005     -0.189  0.000e+00
    18.5402   -0.00005     -0.153  0.000e+00
    18.5479   -0.00005     -0.153  0.000e+00
    18.5563   -0.00005     -0.153  0.000e+00
    18.5645   -0.00005     -0.153  0.000e+00
    18.5734   -0.00005     -0.153  0.000e+00
    18.5824   -0.00005     -0.153  0.000e+00
    18.5916   -0.00005     -0.153  0.000e+00
    18.6006   -0.00005     -0.153  0.000e+00
    18.6103   -0.00006     -0.153  0.000e+00
    18.6206   -0.00005     -0.153  0.000e+00
    18.6306   -0.00006     -0.153  0.000e+00
    18.6415   -0.00005     -0.153  0.000e+00
    18.6522   -0.00005     -0.153  0.000e+00
    18.6641   -0.00006     -0.153  0.000e+00
    18.6759   -0.00006     -0.153  0.000e+00
    18.6864   -0.00005     -0.153  0.000e+00
    18.6980   -0.00005     -0.153  0.000e+00
    18.7105   -0.00005     -0.153  0.000e+00
    18.7220   -0.00005     -0.153  0.000e+00
    18.7347   -0.00006     -0.153  0.000e+00
    18.7466   -0.00005     -0.153  0.000e+00
    18.7595   -0.00005     -0.153  0.000e+00
    18.7722   -0.00005     -0.153  0.000e+00
    18.7846   -0.00005     -0.153  0.000e+00
    18.7978   -0.00005     -0.153  0.000e+00
    18.8108   -0.00005     -0.153  0.000e+00
    18.8240   -0.00005     -0.153  0.000e+00
    18.8376   -0.00005     -0.153  0.000e+00
    18.8506   -0.00006     -0.153  0.000e+00
    18.8649   -0.00006     -0.153  0.000e+00
    18.8788   -0.00005     -0.153  0.000e+00
    18.8933   -0.00006     -0.153  0.000e+00
    18.9077   -0.00006     -0.153  0.000e+00
    18.9226   -0.00005     -0.153  0.000e+00
    18.9388   -0.00006     -0.153  0.000e+00
    18.9523   -0.00006     -0.153  0.000e+00
    18.9674   -0.00005     -0.153  0.000e+00
    18.9823   -0.00005     -0.153  0.000e+00
    18.9983   -0.00005     -0.153  0.000e+00
    19.0128   -0.00005     -0.153  0.000e+00
    19.0295   -0.00005     -0.153  0.000e+00
    19.0443   -0.00005     -0.153  0.000e+00
    19.0597   -0.00006     -0.153  0.000e+00
    19.0764   -0.00005     -0.153  0.000e+00
    19.0913   -0.00005     -0.153  0.000e+00
    19.1075   -0.00005     -0.153  0.000e+00
    19.1229   -0.00006     -0.153  0.000e+00
    19.1388   -0.00006     -0.153  0.000e+00
    19.1547   -0.00006     -0.153  0.000e+00
    19.1705   -0.00006     -0.153  0.000e+00
    19.1871   -0.00005     -0.153  0.000e+00
    19.2015   -0.00006     -0.153  0.000e+00
    19.2175   -0.00006     -0.153  0.000e+00
    19.2325   -0.00005     -0.153  0.000e+00
    19.2481   -0.00006     -0.153  0.000e+00
    19.2634   -0.00005     -0.153  0.000e+00
    19.2788   -0.00006     -0.153  0.000e+00
    19.2947   -0.00005     -0.153  0.000e+00
    19.3094   -0.00006     -0.153  0.000e+00
    19.3244   -0.00005     -0.153  0.000e+00
    19.3388   -0.00005     -0.153  0.000e+00
    19.3540   -0.00006     -0.153  0.000e+00
    19.3686   -0.00006     -0.153  0.000e+00
    19.3837   -0.00006     -0.153  0.000e+00
    19.3982   -0.00006     -0.153  0.000e+00
    19.4128   -0.00006     -0.153  0.000e+00
    19.4276   -0.00006     -0.153  0.000e+00
    19.4428   -0.00006     -0.153  0.000e+00
    19.4573   -0.00006     -0.153  0.000e+00
    19.4720   -0.00006     -0.153  0.000e+00
    19.4870   -0.00006     -0.153  0.000e+00
    19.5016   -0.00006     -0.153  0.000e+00
    19.5155   -0.00005     -0.153  0.000e+00
    19.5306   -0.00006     -0.153  0.000e+00
    19.5446   -0.00006     -0.153  0.000e+00
    19.5588   -0.00006     -0.153  0.000e+00
    19.5717   -0.00006     -0.153  0.000e+00
    19.5862   -0.00006     -0.153  0.000e+00
    19.5986   -0.00006     -0.153  0.000e+00
    19.6120   -0.00006     -0.153  0.000e+00
    19.6254   -0.00005     -0.153  0.000e+00
    19.6385   -0.00006     -0.153  0.000e+00
    19.6507   -0.00006     -0.153  0.000e+00
    19.6645   -0.00006     -0.153  0.000e+00
    19.6761   -0.00006     -0.153  0.000e+00
    19.6886   -0.00006     -0.153  0.000e+00
    19.7015   -0.00006     -0.153  0.000e+00
    19.7131   -0.00006     -0.153  0.000e+00
    19.7256   -0.00006     -0.153  0.000e+00
    19.7376   -0.00006     -0.153  0.000e+00
    19.7499   -0.00006     -0.153  0.000e+00
    19.7619   -0.00006     -0.153  0.000e+00
    19.7736   -0.00006     -0.153  0.000e+00
    19.7857   -0.00006     -0.153  0.000e+00
    19.7974   -0.00006     -0.153  0.000e+00
    19.8086   -0.00006     -0.153  0.000e+00
    19.8202   -0.00006     -0.153  0.000e+00
    19.8323   -0.00006     -0.153  0.000e+00
    19.8431   -0.00006     -0.153  0.000e+00
    19.8539   -0.00006     -0.153  0.000e+00
    19.8651   -0.00006     -0.153  0.000e+00
    19.8762   -0.00006     -0.153  0.000e+00
    19.8868   -0.00006     -0.153  0.000e+00
    19.8974   -0.00006     -0.153  0.000e+00
    19.9081   -0.00006     -0.153  0.000e+00
    19.9179   -0.00006     -0.153  0.000e+00
    19.9288   -0.00006     -0.153  0.000e+00
    19.9390   -0.00006     -0.153  0.000e+00
    19.9493   -0.00006     -0.153  0.000e+00
    19.9596   -0.00006     -0.153  0.000e+00
    19.9692   -0.00006     -0.153  0.000e+00
    19.9791   -0.00006     -0.153  0.000e+00
    19.9889   -0.00006     -0.153  0.000e+00
    19.9980   -0.00006     -0.153  0.000e+00
    20.0079   -0.00006     -0.153  0.000e+00
    20.0168   -0.00006     -0.153  0.000e+00
    20.0255   -0.00006     -0.153  0.000e+00
    20.0349   -0.00006     -0.153  0.000e+00
    20.0433   -0.00006     -0.153  0.000e+00
    20.0524   -0.00006     -0.153  0.000e+00
    20.0610   -0.00006     -0.153  0.000e+00
    20.0689   -0.00006     -0.153  0.000e+00
    20.0776   -0.00006     -0.153  0.000e+00
    20.0860   -0.00006     -0.153  0.000e+00
    20.0938   -0.00006     -0.153  0.000e+00
    20.1021   -0.00006     -0.153  0.000e+00
    20.1099   -0.00006     -0.153  0.000e+00
    20.1177   -0.00006     -0.153  0.000e+00
    20.1245   -0.00006     -0.153  0.000e+00
    20.1321   -0.00006     -0.153  0.000e+00
    20.1392   -0.00006     -0.153  0.000e+00
    20.1465   -0.00006     -0.153  0.000e+00
    20.1531   -0.00006     -0.153  0.000e+00
    20.1603   -0.00006     -0.153  0.000e+00
    20.1669   -0.00006     -0.153  0.000e+00
    20.1737   -0.00006     -0.153  0.000e+00
    20.1798   -0.00006     -0.153  0.000e+00
    20.1862   -0.00006     -0.153  0.000e+00
    20.1925   -0.00006     -0.153  0.000e+00
    20.1980   -0.00006     -0.153  0.000e+00
    20.2045   -0.00006     -0.153  0.000e+00
    20.2100   -0.00006     -0.153  0.000e+00
    20.2164   -0.00006     -0.153  0.000e+00
    20.2218   -0.00006     -0.153  0.000e+00
    20.2272   -0.00006     -0.153  0.000e+00
    20.2337   -0.00006     -0.153  0.000e+00
    20.2394   -0.00006     -0.153  0.000e+00
    20.2448   -0.00006     -0.153  0.000e+00
    20.2505   -0.00006     -0.153  0.000e+00
    20.2556   -0.00006     -0.153  0.000e+00
    20.2609   -0.00006     -0.153  0.000e+00
    20.2675   -0.00006     -0.153  0.000e+00
    20.2719   -0.00006     -0.153  0.000e+00
    20.2774   -0.00006     -0.153  0.000e+00
    20.2826   -0.00006     -0.153  0.000e+00
    20.2879   -0.00006     -0.153  0.000e+00
    20.2930   -0.00006     -0.153  0.000e+00
    20.2984   -0.00006     -0.153  0.000e+00
    20.3034   -0.00006     -0.153  0.000e+00
    20.3083   -0.00006     -0.153  0.000e+00
    20.3126   -0.00006     -0.153  0.000e+00
    20.3179   -0.00006     -0.153  0.000e+00
    20.3232   -0.00006     -0.153  0.000e+00
    20.3271   -0.00006     -0.153  0.000e+00
    20.3319   -0.00006     -0.153  0.000e+00
    20.3361   -0.00006     -0.153  0.000e+00
    20.3407   -0.00006     -0.153  0.000e+00
    20.3444   -0.00006     -0.153  0.000e+00
    20.3490   -0.00006     -0.117  0.000e+00
    20.3531   -0.00006     -0.117  0.000e+00
    20.3568   -0.00006     -0.153  0.000e+00
    20.3605   -0.00006     -0.153  0.000e+00
    20.3643   -0.00006     -0.117  0.000e+00
    20.3684   -0.00006     -0.153  0.000e+00
    20.3716   -0.00006     -0.153  0.000e+00
    20.3751   -0.00006     -0.117  0.000e+00
    20.3782   -0.00006     -0.153  0.000e+00
    20.3814   -0.00006     -0.153  0.000e+00
    20.3852   -0.00006     -0.117  0.000e+00
    20.3881   -0.00006     -0.117  0.000e+00
    20.3913   -0.00006     -0.153  0.000e+00
    20.3948   -0.00006     -0.117  0.000e+00
    20.3972   -0.00006     -0.117  0.000e+00
    20.4004   -0.00006     -0.153  0.000e+00
    20.4033   -0.00006     -0.117  0.000e+00
    20.4059   -0.00006     -0.117  0.000e+00
    20.4082   -0.00006     -0.117  0.000e+00
    20.4107   -0.00006     -0.153  0.000e+00
    20.4132   -0.00006     -0.153  0.000e+00
    20.4162   -0.00006     -0.117  0.000e+00
    20.4186   -0.00006     -0.117  0.000e+00
    20.4205   -0.00006     -0.117  0.000e+00
    20.4227   -0.00006     -0.117  0.000e+00
    20.4254   -0.00006     -0.117  0.000e+00
    20.4285   -0.00006     -0.117  0.000e+00
    20.4306   -0.00006     -0.117  0.000e+00
    20.4326   -0.00006     -0.117  0.000e+00
    20.4361   -0.00006     -0.117  0.000e+00
    20.4389   -0.00006     -0.117  0.000e+00
    20.4413   -0.00006     -0.117  0.000e+00
    20.4441   -0.00006     -0.117  0.000e+00
    20.4471   -0.00006     -0.117  0.000e+00
    20.4500   -0.00006     -0.117  0.000e+00
    20.4531   -0.00006     -0.117  0.000e+00
    20.4559   -0.00006     -0.117  0.000e+00
    20.4588   -0.00006     -0.117  0.000e+00
    20.4620   -0.00006     -0.117  0.000e+00
    20.4656   -0.00006     -0.117  0.000e+00
    20.4686   -0.00006     -0.117  0.000e+00
    20.4710   -0.00006     -0.117  0.000e+00
    20.4746   -0.00006     -0.117  0.000e+00
    20.4776   -0.00006     -0.117  0.000e+00
    20.4803   -0.00006     -0.117  0.000e+00
    20.4841   -0.00006     -0.117  0.000e+00
    20.4866   -0.00006     -0.117  0.000e+00
    20.4897   -0.00006     -0.117  0.000e+00
    20.4949   -0.00006     -0.117  0.000e+00
    20.4972   -0.00006     -0.117  0.000e+00
    20.4998   -0.00006     -0.117  0.000e+00
    20.5024   -0.00006     -0.117  0.000e+00
    20.5052   -0.00006     -0.117  0.000e+00
    20.5047   -0.00006     -0.117  0.000e+00
    20.4993   -0.00006     -0.117  0.000e+00
    20.4929   -0.00006     -0.117  0.000e+00
    20.4811   -0.00006     -0.117  0.000e+00
    20.4664   -0.00006     -0.117  0.000e+00
    20.4476   -0.00006     -0.117  0.000e+00
    20.4273   -0.00006     -0.117  0.000e+00
    20.4093   -0.00006     -0.117  0.000e+00
    20.3877   -0.00006     -0.117  0.000e+00
    20.3665   -0.00006     -0.117  0.000e+00
    20.3426   -0.00006     -0.117  0.000e+00
    20.3174   -0.00006     -0.117  0.000e+00
    20.2896   -0.00006     -0.117  0.000e+00
    20.2631   -0.00006     -0.117  0.000e+00
    20.2316   -0.00006     -0.117  0.000e+00
    20.2047   -0.00006     -0.117  0.000e+00
    20.1704   -0.00006     -0.117  0.000e+00
    20.1371   -0.00006     -0.117  0.000e+00
    20.1048   -0.00006     -0.117  0.000e+00
    20.0723   -0.00006     -0.117  0.000e+00
    20.0357   -0.00006     -0.117  0.000e+00
    20.0012   -0.00006     -0.117  0.000e+00
    19.9689   -0.00006     -0.117  0.000e+00
    19.9346   -0.00006     -0.117  0.000e+00
    19.8969   -0.00006     -0.117  0.000e+00
    19.8644   -0.00006     -0.117  0.000e+00
    19.8302   -0.00006     -0.117  0.000e+00
    19.7937   -0.00006     -0.117  0.000e+00
    19.7594   -0.00006     -0.117  0.000e+00
    19.7221   -0.00006     -0.117  0.000e+00
    19.6869   -0.00006     -0.117  0.000e+00
    19.6471   -0.00006     -0.117  0.000e+00
    19.6118   -0.00006     -0.117  0.000e+00
    19.5745   -0.00006     -0.117  0.000e+00
    19.5373   -0.00005     -0.117  0.000e+00
    19.5064   -0.00006     -0.117  0.000e+00
    19.4671   -0.00006     -0.117  0.000e+00
    19.4338   -0.00006     -0.117  0.000e+00
    19.4007   -0.00006     -0.117  0.000e+00
    19.3660   -0.00006     -0.117  0.000e+00
    19.3292   -0.00005     -0.117  0.000e+00
    19.2982   -0.00005     -0.117  0.000e+00
    19.2627   -0.00006     -0.117  0.000e+00
    19.2311   -0.00005     -0.117  0.000e+00
    19.1993   -0.00005     -0.117  0.000e+00
    19.1691   -0.00005     -0.117  0.000e+00
    19.1361   -0.00006     -0.117  0.000e+00
    19.1065   -0.00006     -0.117  0.000e+00
    19.0753   -0.00006     -0.117  0.000e+00
    19.0437   -0.00005     -0.117  0.000e+00
    19.0159   -0.00005     -0.117  0.000e+00
    18.9840   -0.00005     -0.117  0.000e+00
    18.9575   -0.00005     -0.117  0.000e+00
    18.9326   -0.00005     -0.117  0.000e+00
    18.9047   -0.00005     -0.117  0.000e+00
    18.8800   -0.00005     -0.117  0.000e+00
    18.8488   -0.00005     -0.117  0.000e+00
    18.8266   -0.00005     -0.117  0.000e+00
    18.8040   -0.00005     -0.117  0.000e+00
    18.7787   -0.00005     -0.117  0.000e+00
    18.7578   -0.00005     -0.117  0.000e+00
    18.7357   -0.00005     -0.117  0.000e+00
    18.7112   -0.00005     -0.117  0.000e+00
    18.6925   -0.00005     -0.117  0.000e+00
    18.6702   -0.00005     -0.117  0.000e+00
    18.6511   -0.00005     -0.117  0.000e+00
    18.6304   -0.00005     -0.117  0.000e+00
    18.6089   -0.00005     -0.117  0.000e+00
    18.5886   -0.00005     -0.117  0.000e+00
    18.5675   -0.00005     -0.117  0.000e+00
    18.5497   -0.00005     -0.117  0.000e+00
    18.5291   -0.00005     -0.117  0.000e+00
    18.5113   -0.00005     -0.117  0.000e+00
    18.4934   -0.00005     -0.117  0.000e+00
    18.4736   -0.00005     -0.117  0.000e+00
    18.4567   -0.00005     -0.117  0.000e+00
    18.4402   -0.00005     -0.117  0.000e+00
    18.4223   -0.00005     -0.117  0.000e+00
    18.4061   -0.00005     -0.117  0.000e+00
    18.3873   -0.00005     -0.117  0.000e+00
    18.3727   -0.00005     -0.117  0.000e+00
    18.3568   -0.00005     -0.117  0.000e+00
    18.3396   -0.00005     -0.117  0.000e+00
    18.3228   -0.00005     -0.117  0.000e+00
    18.3080   -0.00005     -0.117  0.000e+00
    18.2931   -0.00005     -0.117  0.000e+00
    18.2770   -0.00005     -0.117  0.000e+00
    18.2637   -0.00005     -0.117  0.000e+00
    18.2479   -0.00005     -0.117  0.000e+00
    18.2346   -0.00005     -0.117  0.000e+00
    18.2191   -0.00005     -0.117  0.000e+00
    18.2055   -0.00005     -0.117  0.000e+00
    18.1915   -0.00005     -0.117  0.000e+00
    18.1782   -0.00005     -0.117  0.000e+00
    18.1639   -0.00005     -0.117  0.000e+00
    18.1507   -0.00005     -0.117  0.000e+00
    18.1379   -0.00005     -0.117  0.000e+00
    18.1247   -0.00005     -0.117  0.000e+00
    18.1115   -0.00005     -0.117  0.000e+00
    18.0977   -0.00005     -0.117  0.000e+00
    18.0855   -0.00005     -0.117  0.000e+00
    18.0725   -0.00005     -0.117  0.000e+00
    18.0601   -0.00005     -0.117  0.000e+00
    18.0490   -0.00005     -0.117  0.000e+00
    18.0362   -0.00005     -0.117  0.000e+00
    18.0243   -0.00005     -0.117  0.000e+00
    18.0127   -0.00005     -0.117  0.000e+00
    18.0024   -0.00005     -0.117  0.000e+00
    17.9893   -0.00005     -0.117  0.000e+00
    17.9794   -0.00005     -0.117  0.000e+00
    17.9692   -0.00005     -0.117  0.000e+00
    17.9583   -0.00005     -0.117  0.000e+00
    17.9491   -0.00005     -0.117  0.000e+00
    17.9399   -0.00005     -0.117  0.000e+00
    17.9314   -0.00005     -0.117  0.000e+00
    17.9214   -0.00005     -0.117  0.000e+00
    17.9145   -0.00005     -0.117  0.000e+00
    17.9052   -0.00005     -0.117  0.000e+00
    17.8975   -0.00005     -0.117  0.000e+00
    17.8895   -0.00005     -0.117  0.000e+00
    17.8803   -0.00005     -0.117  0.000e+00
    17.8727   -0.00005     -0.117  0.000e+00
    17.8632   -0.00005     -0.117  0.000e+00
    17.8550   -0.00005     -0.117  0.000e+00
    17.8464   -0.00005     -0.117  0.000e+00
    17.8383   -0.00005     -0.117  0.000e+00
    17.8281   -0.00005     -0.117  0.000e+00
    17.8211   -0.00005     -0.117  0.000e+00
    17.8127   -0.00005     -0.117  0.000e+00
    17.8028   -0.00005     -0.117  0.000e+00
    17.7923   -0.00005     -0.117  0.000e+00
    17.7844   -0.00005     -0.117  0.000e+00
    17.7751   -0.00005     -0.117  0.000e+00
    17.7661   -0.00005     -0.153  0.000e+00
    17.7558   -0.00005     -0.117  0.000e+00
    17.7471   -0.00005     -0.117  0.000e+00
    17.7389   -0.00005     -0.117  0.000e+00
    17.7293   -0.00005     -0.117  0.000e+00
    17.7212   -0.00005     -0.117  0.000e+00
    17.7119   -0.00005     -0.117  0.000e+00
    17.7037   -0.00005     -0.117  0.000e+00
    17.6953   -0.00005     -0.117  0.000e+00
    17.6872   -0.00005     -0.117  0.000e+00
    17.6792   -0.00005     -0.117  0.000e+00
    17.6715   -0.00005     -0.117  0.000e+00
    17.6633   -0.00005     -0.117  0.000e+00
    17.6554   -0.00005     -0.117  0.000e+00
    17.6477   -0.00005     -0.117  0.000e+00
    17.6394   -0.00005     -0.117  0.000e+00
    17.6321   -0.00005     -0.117  0.000e+00
    17.6254   -0.00005     -0.117  0.000e+00
    17.6192   -0.00005     -0.117  0.000e+00
    17.6131   -0.00005     -0.117  0.000e+00
    17.6070   -0.00005     -0.117  0.000e+00
    17.6011   -0.00005     -0.117  0.000e+00
    17.5959   -0.00005     -0.117  0.000e+00
    17.5899   -0.00005     -0.117  0.000e+00
    17.5837   -0.00005     -0.117  0.000e+00
    17.5770   -0.00005     -0.117  0.000e+00
    17.5699   -0.00005     -0.117  0.000e+00
    17.5623   -0.00005     -0.117  0.000e+00
    17.5546   -0.00005     -0.117  0.000e+00
    17.5471   -0.00005     -0.117  0.000e+00
    17.5396   -0.00005     -0.117  0.000e+00
    17.5329   -0.00005     -0.117  0.000e+00
    17.5254   -0.00005     -0.117  0.000e+00
    17.5192   -0.00005     -0.117  0.000e+00
    17.5126   -0.00005     -0.117  0.000e+00
    17.5064   -0.00005     -0.117  0.000e+00
    17.4999   -0.00005     -0.117  0.000e+00
    17.4946   -0.00005     -0.117  0.000e+00
    17.4892   -0.00005     -0.117  0.000e+00
    17.4848   -0.00005     -0.117  0.000e+00
    17.4801   -0.00005     -0.117  0.000e+00
    17.4761   -0.00005     -0.117  0.000e+00
    17.4708   -0.00005     -0.117  0.000e+00
    17.4654   -0.00005     -0.117  0.000e+00
    17.4603   -0.00005     -0.117  0.000e+00
    17.4549   -0.00005     -0.117  0.000e+00
    17.4496   -0.00005     -0.117  0.000e+00
    17.4440   -0.00005     -0.117  0.000e+00
    17.4374   -0.00005     -0.117  0.000e+00
    17.4308   -0.00005     -0.117  0.000e+00
    17.4243   -0.00005     -0.153  0.000e+00
    17.4176   -0.00005     -0.117  0.000e+00
    17.4097   -0.00005     -0.117  0.000e+00
    17.4017   -0.00005     -0.117  0.000e+00
    17.3926   -0.00005     -0.117  0.000e+00
    17.3839   -0.00005     -0.153  0.000e+00
    17.3740   -0.00005     -0.117  0.000e+00
    17.3633   -0.00005     -0.117  0.000e+00
    17.3517   -0.00005     -0.117  0.000e+00
    17.3392   -0.00005     -0.117  0.000e+00
    17.3268   -0.00005     -0.117  0.000e+00
    17.3145   -0.00005     -0.117  0.000e+00
    17.3025   -0.00005     -0.153  0.000e+00
    17.2891   -0.00005     -0.117  0.000e+00
    17.2765   -0.00005     -0.117  0.000e+00
    17.2637   -0.00004     -0.117  0.000e+00
    17.2509   -0.00005     -0.117  0.000e+00
    17.2372   -0.00005     -0.153  0.000e+00
    17.2239   -0.00005     -0.153  0.000e+00
    17.2097   -0.00005     -0.117  0.000e+00
    17.1954   -0.00005     -0.117  0.000e+00
    17.1815   -0.00005     -0.117  0.000e+00
    17.1669   -0.00005     -0.153  0.000e+00
    17.1518   -0.00005     -0.117  0.000e+00
    17.1370   -0.00005     -0.153  0.000e+00
    17.1210   -0.00005     -0.153  0.000e+00
    17.1055   -0.00004     -0.117  0.000e+00
    17.0900   -0.00005     -0.153  0.000e+00
    17.0743   -0.00004     -0.117  0.000e+00
    17.0594   -0.00004     -0.117  0.000e+00
    17.0480   -0.00004     -0.153  0.000e+00
    17.0376   -0.00004     -0.117  0.000e+00
    17.0286   -0.00005     -0.153  0.000e+00
    17.0219   -0.00005     -0.153  0.000e+00
    17.0192   -0.00005     -0.117  0.000e+00
    17.0171   -0.00004     -0.117  0.000e+00
    17.0177   -0.00005     -0.117  0.000e+00
    17.0203   -0.00005     -0.117  0.000e+00
    17.0238   -0.00004     -0.117  0.000e+00
    17.0295   -0.00004     -0.153  0.000e+00
    17.0360   -0.00005     -0.153  0.000e+00
    17.0440   -0.00005     -0.117  0.000e+00
    17.0532   -0.00004     -0.153  0.000e+00
    17.0635   -0.00005     -0.117  0.000e+00
    17.0751   -0.00004     -0.153  0.000e+00
    17.0876   -0.00005     -0.117  0.000e+00
    17.1006   -0.00004     -0.117  0.000e+00
    17.1150   -0.00005     -0.153  0.000e+00
    17.1298   -0.00005     -0.153  0.000e+00
    17.1461   -0.00004     -0.153  0.000e+00
    17.1625   -0.00004     -0.153  0.000e+00
    17.1797   -0.00005     -0.153  0.000e+00
    17.1976   -0.00005     -0.117  0.000e+00
    17.2163   -0.00005     -0.153  0.000e+00
    17.2355   -0.00005     -0.153  0.000e+00
    17.2547   -0.00005     -0.153  0.000e+00
    17.2748   -0.00005     -0.153  0.000e+00
    17.2949   -0.00005     -0.153  0.000e+00
    17.3157   -0.00005     -0.153  0.000e+00
    17.3365   -0.00005     -0.117  0.000e+00
    17.3575   -0.00005     -0.153  0.000e+00
    17.3785   -0.00005     -0.153  0.000e+00
    17.4001   -0.00005     -0.153  0.000e+00
    17.4220   -0.00005     -0.153  0.000e+00
    17.4434   -0.00005     -0.153  0.000e+00
    17.4648   -0.00005     -0.153  0.000e+00
    17.4861   -0.00005     -0.153  0.000e+00
    17.5080   -0.00005     -0.117  0.000e+00
    17.5296   -0.00005     -0.153  0.000e+00
    17.5513   -0.00005     -0.153  0.000e+00
    17.5730   -0.00005     -0.153  0.000e+00
    17.5951   -0.00005     -0.153  0.000e+00
    17.6168   -0.00005     -0.153  0.000e+00
    17.6397   -0.00005     -0.153  0.000e+00
    17.6613   -0.00005     -0.153  0.000e+00
    17.6837   -0.00005     -0.153  0.000e+00
    17.7056   -0.00005     -0.153  0.000e+00
    17.7282   -0.00005     -0.153  0.000e+00
    17.7503   -0.00005     -0.153  0.000e+00
    17.7723   -0.00005     -0.153  0.000e+00
    17.7948   -0.00005     -0.153  0.000e+00
    17.8175   -0.00005     -0.153  0.000e+00
    17.8393   -0.00005     -0.153  0.000e+00
    17.8614   -0.00005     -0.153  0.000e+00
    17.8832   -0.00005     -0.153  0.000e+00
    17.9053   -0.00005     -0.153  0.000e+00
    17.9270   -0.00005     -0.153  0.000e+00
    17.9483   -0.00005     -0.153  0.000e+00
    17.9697   -0.00005     -0.153  0.000e+00
    17.9908   -0.00005     -0.153  0.000e+00
    18.0118   -0.00005     -0.153  0.000e+00
    18.0320   -0.00005     -0.153  0.000e+00
    18.0525   -0.00005     -0.153  0.000e+00
    18.0733   -0.00005     -0.153  0.000e+00
    18.0938   -0.00005     -0.153  0.000e+00
    18.1131   -0.00005     -0.153  0.000e+00
    18.1330   -0.00005     -0.153  0.000e+00
    18.1527   -0.00005     -0.153  0.000e+00
    18.1721   -0.00005     -0.153  0.000e+00
    18.1914   -0.00005     -0.153  0.000e+00
    18.2113   -0.00005     -0.153  0.000e+00
    18.2302   -0.00005     -0.153  0.000e+00
    18.2490   -0.00005     -0.153  0.000e+00
    18.2680   -0.00005     -0.153  0.000e+00
    18.2863   -0.00005     -0.153  0.000e+00
    18.3057   -0.00005     -0.153  0.000e+00
    18.3239   -0.00005     -0.153  0.000e+00
    18.3420   -0.00005     -0.153  0.000e+00
    18.3598   -0.00005     -0.153  0.000e+00
    18.3777   -0.00005     -0.153  0.000e+00
    18.3957   -0.00006     -0.153  0.000e+00
    18.4132   -0.00005     -0.153  0.000e+00
    18.4303   -0.00005     -0.153  0.000e+00
    18.4471   -0.00005     -0.153  0.000e+00
    18.4647   -0.00005     -0.153  0.000e+00
    18.4816   -0.00005     -0.153  0.000e+00
    18.4977   -0.00005     -0.153  0.000e+00
    18.5143   -0.00005     -0.153  0.000e+00
    18.5315   -0.00005     -0.153  0.000e+00
    18.5476   -0.00005     -0.153  0.000e+00
    18.5642   -0.00005     -0.153  0.000e+00
    18.5804   -0.00005     -0.153  0.000e+00
    18.5969   -0.00005     -0.153  0.000e+00
    18.6122   -0.00005     -0.153  0.000e+00
    18.6282   -0.00005     -0.153  0.000e+00
    18.6436   -0.00006     -0.153  0.000e+00
    18.6591   -0.00006     -0.153  0.000e+00
    18.6747   -0.00006     -0.153  0.000e+00
    18.6897   -0.00005     -0.153  0.000e+00
    18.7046   -0.00005     -0.153  0.000e+00
    18.7196   -0.00005     -0.153  0.000e+00
    18.7342   -0.00005     -0.153  0.000e+00
    18.7487   -0.00005     -0.153  0.000e+00
    18.7635   -0.00005     -0.153  0.000e+00
    18.7782   -0.00005     -0.153  0.000e+00
    18.7918   -0.00006     -0.153  0.000e+00
    18.8057   -0.00005     -0.153  0.000e+00
    18.8201   -0.00005     -0.153  0.000e+00
    18.8341   -0.00005     -0.153  0.000e+00
    18.8477   -0.00005     -0.153  0.000e+00
    18.8605   -0.00005     -0.153  0.000e+00
    18.8746   -0.00005     -0.153  0.000e+00
    18.8877   -0.00005     -0.153  0.000e+00
    18.9007   -0.00005     -0.153  0.000e+00
    18.9139   -0.00005     -0.153  0.000e+00
    18.9264   -0.00005     -0.153  0.000e+00
    18.9389   -0.00005     -0.153  0.000e+00
    18.9518   -0.00006     -0.153  0.000e+00
    18.9643   -0.00006     -0.153  0.000e+00
    18.9767   -0.00006     -0.153  0.000e+00
    18.9892   -0.00005     -0.153  0.000e+00
    19.0015   -0.00005     -0.153  0.000e+00
    19.0138   -0.00005     -0.153  0.000e+00
    19.0256   -0.00005     -0.153  0.000e+00
    19.0383   -0.00005     -0.153  0.000e+00
    19.0496   -0.00006     -0.153  0.000e+00
    19.1624   -0.00006     -0.153  0.000e+00
    19.2372   -0.00006     -0.153  0.000e+00
    19.2715   -0.00006     -0.153  0.000e+00
    19.3293   -0.00006     -0.153  0.000e+00
    19.3480   -0.00006     -0.153  0.000e+00
    19.3685   -0.00006     -0.153  0.000e+00
    19.4131   -0.00006     -0.153  0.000e+00
    19.4637   -0.00006     -0.153  0.000e+00
    19.4965   -0.00006     -0.153  0.000e+00
    19.5625   -0.00006     -0.153  0.000e+00
    19.5911   -0.00006     -0.153  0.000e+00
    19.6221   -0.00006     -0.153  0.000e+00
    19.6217   -0.00006     -0.153  0.000e+00
    19.6745   -0.00006     -0.153  0.000e+00
    19.6956   -0.00006     -0.153  0.000e+00
    19.6922   -0.00006     -0.153  0.000e+00
    19.5948   -0.00006     -0.153  0.000e+00
    19.5357   -0.00006     -0.153  0.000e+00
    19.6181   -0.00006     -0.153  0.000e+00
    19.6933   -0.00006     -0.153  0.000e+00
    19.6855   -0.00006     -0.153  0.000e+00
    19.6555   -0.00006     -0.153  0.000e+00
    19.7581   -0.00006     -0.153  0.000e+00
    19.7977   -0.00006     -0.153  0.000e+00
    19.7615   -0.00006     -0.153  0.000e+00
    19.7964   -0.00006     -0.153  0.000e+00
    19.8718   -0.00006     -0.153  0.000e+00
    19.8774   -0.00006     -0.153  0.000e+00
    19.8976   -0.00006     -0.153  0.000e+00
    19.9184   -0.00006     -0.153  0.000e+00
    19.9275   -0.00006     -0.153  0.000e+00
    19.9336   -0.00006     -0.153  0.000e+00
    19.9759   -0.00006     -0.153  0.000e+00
    20.0057   -0.00006     -0.153  0.000e+00
    20.0145   -0.00006     -0.153  0.000e+00
    20.0270   -0.00006     -0.153  0.000e+00
    19.9709   -0.00006     -0.153  0.000e+00
    20.0522   -0.00006     -0.153  0.000e+00
    20.0913   -0.00006     -0.153  0.000e+00
    20.0810   -0.00006     -0.153  0.000e+00
    20.1357   -0.00006     -0.153  0.000e+00
    20.1561   -0.00006     -0.153  0.000e+00
    20.1755   -0.00006     -0.153  0.000e+00
    20.1999   -0.00006     -0.153  0.000e+00
    20.2212   -0.00006     -0.153  0.000e+00
    19.1914   -0.00005     -0.117  0.000e+00
    13.7718    0.00001     -0.153  0.000e+00
     8.7257    3.67919     -0.367  0.000e+00
     8.7211    3.68092      2.847  0.000e+00
     8.7081    3.68014      5.668  0.000e+00
     8.6705    3.67792     11.596  0.000e+00
     8.6902    3.67876      8.882  0.000e+00
     8.6675    3.67715     12.311  0.000e+00
     8.6636    3.67786     21.203  0.000e+00
     8.6112    3.67461     25.881  0.000e+00
     8.5047    3.66704     34.666  0.000e+00
     8.5733    3.67260     27.738  0.000e+00
     8.4657    3.66267     36.380  0.000e+00
     8.4057    3.65726     42.737  0.000e+00
     8.4153    3.65814     40.416  0.000e+00
     8.3683    3.65369     51.451  0.000e+00
     8.3744    3.65440     52.236  0.000e+00
     8.3758    3.65479     55.343  0.000e+00
     8.3700    3.65401     55.058  0.000e+00
     8.3715    3.65406     53.665  0.000e+00
     8.3738    3.65402     51.736  0.000e+00
     8.3812    3.65491     50.308  0.000e+00
     8.3672    3.65396     58.629  0.000e+00
     8.3909    3.65652     56.236  0.000e+00
     8.3946    3.65692     58.236  0.000e+00
     8.3886    3.65651     58.164  0.000e+00
     8.4203    3.65995     58.986  0.000e+00
     8.4208    3.66009     59.629  0.000e+00
     8.4224    3.66025     57.664  0.000e+00
     8.4263    3.66059     55.129  0.000e+00
     8.4306    3.66077     52.951  0.000e+00
     8.4414    3.66209     53.236  0.000e+00
     8.4106    3.65927     58.807  0.000e+00
     8.3989    3.65780     57.307  0.000e+00
     8.3854    3.65627     57.450  0.000e+00
     8.3533    3.65280     58.664  0.000e+00
     8.3391    3.65126     59.093  0.000e+00
     8.3231    3.64851     59.272  0.000e+00
     8.3016    3.64646     58.450  0.000e+00
     8.2927    3.64497     56.129  0.000e+00
     8.2580    3.64172     57.986  0.000e+00
     8.2571    3.64158     58.522  0.000e+00
     8.2514    3.64055     56.093  0.000e+00
     8.2952    3.64600     57.022  0.000e+00
     8.2817    3.64497     54.272  0.000e+00
     8.3043    3.64636     51.165  0.000e+00
     8.3610    3.65273     52.379  0.000e+00
     8.3795    3.65523     51.272  0.000e+00
     8.3817    3.65545     50.701  0.000e+00
     8.3830    3.65507     50.879  0.000e+00
     8.3847    3.65545     51.522  0.000e+00
     8.3839    3.65568     50.951  0.000e+00
     8.3824    3.65540     50.094  0.000e+00
     8.3741    3.65470     50.415  0.000e+00
     8.3775    3.65527     50.772  0.000e+00
     8.3845    3.65623     50.344  0.000e+00
     8.3903    3.65692     50.129  0.000e+00
     8.3831    3.65656     49.808  0.000e+00
     8.3829    3.65652     49.915  0.000e+00
     8.4023    3.65863     49.415  0.000e+00
     8.4183    3.65998     49.451  0.000e+00
     8.4205    3.66034     50.201  0.000e+00
     8.4321    3.66036     36.595  0.000e+00
     8.4914    3.66533     30.488  0.000e+00
     8.4323    3.65991     36.666  0.000e+00
     8.1772    3.63938     75.020  0.000e+00
     7.7980    3.60774    120.374  0.000e+00
     7.6066    3.59451    181.299  0.000e+00
     7.2737    3.56709    270.185  0.000e+00
     7.3820    3.57649    251.972  0.000e+00
     7.4230    3.58049    253.329  0.000e+00
     7.3698    3.57602    256.650  0.000e+00
     7.3595    3.57523    260.150  0.000e+00
     7.3547    3.57488    263.543  0.000e+00
     7.3543    3.57518    266.721  0.000e+00
     7.3968    3.57991    269.757  0.000e+00
     7.3177    3.57202    272.578  0.000e+00
     7.2738    3.56770    275.185  0.000e+00
     7.2624    3.56665    277.685  0.000e+00
     7.2572    3.56602    280.041  0.000e+00
     7.2910    3.57005    282.220  0.000e+00
     7.2939    3.57015    284.077  0.000e+00
     7.2826    3.56927    285.720  0.000e+00
     7.3041    3.57094    287.255  0.000e+00
     7.2794    3.56891    288.612  0.000e+00
     7.2652    3.56752    289.898  0.000e+00
     7.2521    3.56627    290.969  0.000e+00
     7.2511    3.56620    291.862  0.000e+00
     7.2820    3.56906    292.719  0.000e+00
     7.2331    3.56461    293.576  0.000e+00
     7.2334    3.56442    294.433  0.000e+00
     7.2139    3.56266    295.505  0.000e+00
     7.2037    3.56161    296.469  0.000e+00
     7.1986    3.56118    297.290  0.000e+00
     7.1964    3.56118    297.969  0.000e+00
     7.1925    3.56069    298.826  0.000e+00
     7.1947    3.56096    299.576  0.000e+00
     7.1803    3.55979    300.397  0.000e+00
     7.1766    3.55934    301.040  0.000e+00
     7.1797    3.55963    301.647  0.000e+00
     7.1792    3.55966    302.361  0.000e+00
     7.1837    3.56009    302.861  0.000e+00
     7.1891    3.56063    303.290  0.000e+00
     7.1815    3.55998    303.576  0.000e+00
     7.1964    3.56142    303.861  0.000e+00
     7.1968    3.56144    304.183  0.000e+00
     7.1917    3.56090    304.504  0.000e+00
     7.1908    3.56078    304.468  0.000e+00
     7.1920    3.56097    304.540  0.000e+00
     7.1987    3.56159    304.611  0.000e+00
     7.1884    3.56070    304.683  0.000e+00
     7.1820    3.56018    304.540  0.000e+00
     7.1938    3.56119    304.397  0.000e+00
     7.1947    3.56123    304.183  0.000e+00
     7.1994    3.56168    304.111  0.000e+00
     7.1977    3.56138    304.040  0.000e+00
     7.1896    3.56069    303.933  0.000e+00
     7.1975    3.56129    303.826  0.000e+00
     7.1933    3.56092    303.790  0.000e+00
     7.1772    3.55948    303.468  0.000e+00
     7.1931    3.56080    303.361  0.000e+00
     7.2048    3.56197    303.290  0.000e+00
     7.2110    3.56253    303.361  0.000e+00
     7.2237    3.56373    303.576  0.000e+00
     7.2203    3.56344    303.933  0.000e+00
     7.2180    3.56310    304.183  0.000e+00
     7.1971    3.56120    304.468  0.000e+00
     7.1937    3.56094    304.683  0.000e+00
     7.1772    3.55956    304.897  0.000e+00
     7.1820    3.55796    305.111  0.000e+00
     7.1115    3.55207    305.254  0.000e+00
     7.0296    3.54182    305.290  0.000e+00
     6.8874    3.52751    305.468  0.000e+00
     6.8344    3.52193    305.611  0.000e+00
     6.8167    3.51910    305.754  0.000e+00
     6.8542    3.52324    306.004  0.000e+00
     6.7807    3.51562    306.004  0.000e+00
     6.7744    3.51481    306.075  0.000e+00
     6.8325    3.52069    306.182  0.000e+00
     6.8349    3.52080    306.504  0.000e+00
     6.7227    3.50917    306.790  0.000e+00
     6.6983    3.50629    306.968  0.000e+00
     6.7091    3.50787    307.182  0.000e+00
     6.8118    3.51817    307.254  0.000e+00
     6.9038    3.52841    307.432  0.000e+00
     6.8219    3.52047    307.611  0.000e+00
     6.7708    3.51493    307.754  0.000e+00
     6.7534    3.51229    307.682  0.000e+00
     6.7676    3.51378    307.647  0.000e+00
     6.7544    3.51260    307.790  0.000e+00
     6.8185    3.51920    307.861  0.000e+00
     6.9122    3.52975    308.040  0.000e+00
     7.0605    3.54574    308.254  0.000e+00
     7.0901    3.54834    308.611  0.000e+00
     7.0996    3.54938    309.004  0.000e+00
     7.0685    3.54636    309.325  0.000e+00
     7.0499    3.54424    309.504  0.000e+00
     7.0430    3.54368    309.575  0.000e+00
     7.0369    3.54282    309.718  0.000e+00
     7.0619    3.54547    309.968  0.000e+00
     7.0266    3.54146    310.254  0.000e+00
     6.9813    3.53721    310.539  0.000e+00
     7.0118    3.54028    310.789  0.000e+00
     7.0503    3.54415    310.932  0.000e+00
     6.9965    3.53877    310.932  0.000e+00
     6.8553    3.52274    311.254  0.000e+00
     6.8828    3.52533    311.539  0.000e+00
     6.8872    3.52696    311.896  0.000e+00
     6.9114    3.52888    312.254  0.000e+00
     6.8909    3.52698    312.611  0.000e+00
     6.9796    3.53699    313.003  0.000e+00
     7.0765    3.54706    313.503  0.000e+00
     6.9617    3.53545    313.825  0.000e+00
     6.9294    3.53069    314.289  0.000e+00
     6.8948    3.52792    314.718  0.000e+00
     6.9232    3.53104    315.218  0.000e+00
     6.9274    3.53132    315.575  0.000e+00
     6.9064    3.52902    315.896  0.000e+00
     6.9248    3.53141    316.110  0.000e+00
     6.9627    3.53504    316.253  0.000e+00
     6.9114    3.53016    316.432  0.000e+00
     6.8862    3.52766    316.467  0.000e+00
     6.8885    3.52878    316.575  0.000e+00
     6.8898    3.52829    316.646  0.000e+00
     6.8777    3.52663    316.682  0.000e+00
     6.9008    3.52884    316.932  0.000e+00
     6.9035    3.52957    317.253  0.000e+00
     6.8694    3.52548    317.467  0.000e+00
     6.8395    3.52163    317.539  0.000e+00
     6.7992    3.51762    317.503  0.000e+00
     6.7912    3.51687    317.432  0.000e+00
     6.8481    3.52299    317.253  0.000e+00
     6.9204    3.52994    317.075  0.000e+00
     7.1017    3.54974    316.825  0.000e+00
     7.0219    3.54174    316.467  0.000e+00
     7.0005    3.54077    316.182  0.000e+00
     7.0771    3.54849    315.825  0.000e+00
     7.1088    3.55055    315.396  0.000e+00
     7.1473    3.55528    314.968  0.000e+00
     7.1287    3.55247    314.539  0.000e+00
     7.1505    3.55573    314.003  0.000e+00
     7.0320    3.54218    313.468  0.000e+00
     7.0226    3.54283    312.932  0.000e+00
     7.1213    3.55377    312.396  0.000e+00
     7.0342    3.54234    311.896  0.000e+00
     6.9157    3.52850    311.504  0.000e+00
     6.8852    3.52637    311.039  0.000e+00
     6.9389    3.53117    310.611  0.000e+00
     6.9387    3.53035    310.182  0.000e+00
     6.8674    3.52462    309.861  0.000e+00
     6.9242    3.53223    309.575  0.000e+00
     7.0591    3.54441    309.289  0.000e+00
     7.0738    3.54588    308.932  0.000e+00
     6.9993    3.53742    308.682  0.000e+00
     7.0088    3.53758    308.397  0.000e+00
     7.0843    3.54632    308.075  0.000e+00
     7.1186    3.55068    307.790  0.000e+00
     7.1486    3.55301    307.361  0.000e+00
     7.1311    3.55138    306.861  0.000e+00
     7.1192    3.55011    306.290  0.000e+00
     7.1407    3.55276    305.683  0.000e+00
     7.1676    3.55564    305.004  0.000e+00
     7.1159    3.55030    304.361  0.000e+00
     7.0820    3.54632    303.683  0.000e+00
     7.0822    3.54569    302.933  0.000e+00
     7.0202    3.53903    302.254  0.000e+00
     6.9254    3.52883    301.540  0.000e+00
     6.9449    3.53052    300.861  0.000e+00
     6.9632    3.53250    300.076  0.000e+00
     7.0105    3.53745    299.504  0.000e+00
     7.0358    3.53975    298.790  0.000e+00
     7.0526    3.54164    298.112  0.000e+00
     7.0745    3.54408    297.469  0.000e+00
     7.1371    3.55039    296.862  0.000e+00
     7.2095    3.55765    296.219  0.000e+00
     7.2468    3.56134    295.648  0.000e+00
     7.4308    3.58095    295.112  0.000e+00
     7.4810    3.58599    294.362  0.000e+00
     7.4581    3.58623    293.683  0.000e+00
     7.4122    3.58014    292.862  0.000e+00
     7.3889    3.57910    292.005  0.000e+00
     7.3283    3.57072    291.184  0.000e+00
     7.3999    3.57945    290.398  0.000e+00
     7.4845    3.58783    289.577  0.000e+00
     7.1718    3.55781    288.755  0.000e+00
     7.1871    3.55552    287.898  0.000e+00
     7.2612    3.56318    287.005  0.000e+00
     7.0646    3.54537    286.184  0.000e+00
     7.0784    3.54347    285.398  0.000e+00
     6.9330    3.52839    284.505  0.000e+00
     6.9525    3.52925    283.720  0.000e+00
     6.9305    3.52606    283.041  0.000e+00
     6.9383    3.52804    282.363  0.000e+00
     6.8642    3.51956    281.720  0.000e+00
     6.9138    3.52485    281.113  0.000e+00
     7.1071    3.54495    280.541  0.000e+00
     7.1064    3.54541    279.970  0.000e+00
     7.0780    3.54220    279.327  0.000e+00
     7.0935    3.54411    278.684  0.000e+00
     7.1493    3.54975    278.042  0.000e+00
     7.1314    3.54778    277.435  0.000e+00
     7.1342    3.54785    277.006  0.000e+00
     7.1546    3.55013    276.506  0.000e+00
     7.1298    3.54736    276.149  0.000e+00
     7.1455    3.54900    275.756  0.000e+00
     7.1478    3.54957    275.363  0.000e+00
     7.2198    3.55642    275.006  0.000e+00
     7.2094    3.55548    274.720  0.000e+00
     7.2038    3.55506    274.613  0.000e+00
     7.1878    3.55309    274.506  0.000e+00
     7.2326    3.55819    274.542  0.000e+00
     7.2032    3.55456    274.542  0.000e+00
     7.2897    3.56433    274.542  0.000e+00
     7.2832    3.56376    274.685  0.000e+00
     7.2448    3.55913    274.863  0.000e+00
     7.2590    3.56068    275.149  0.000e+00
     7.2829    3.56329    275.328  0.000e+00
     7.2759    3.56274    275.542  0.000e+00
     7.2608    3.56083    275.828  0.000e+00
     7.2268    3.55793    276.078  0.000e+00
     7.2185    3.55705    276.399  0.000e+00
     7.2139    3.55634    276.756  0.000e+00
     7.2534    3.56056    277.113  0.000e+00
     7.2176    3.55705    277.542  0.000e+00
     7.1498    3.54952    277.899  0.000e+00
     7.1934    3.55294    278.256  0.000e+00
     7.3914    3.57529    278.684  0.000e+00
     7.4508    3.58218    279.113  0.000e+00
     7.4482    3.58225    279.434  0.000e+00
     7.4310    3.58039    279.827  0.000e+00
     7.4758    3.58504    280.149  0.000e+00
     7.5076    3.58864    280.613  0.000e+00
     7.5103    3.58919    280.970  0.000e+00
     7.5013    3.58823    281.256  0.000e+00
     7.5005    3.58801    281.506  0.000e+00
     7.4770    3.58570    281.863  0.000e+00
     7.4573    3.58379    282.220  0.000e+00
     7.4717    3.58523    282.470  0.000e+00
     7.4722    3.58536    282.720  0.000e+00
     7.4686    3.58531    282.863  0.000e+00
     7.4890    3.58731    283.077  0.000e+00
     7.4784    3.58602    283.220  0.000e+00
     7.4744    3.58566    283.613  0.000e+00
     7.4794    3.58669    283.863  0.000e+00
     7.4713    3.58562    284.041  0.000e+00
     7.4454    3.58336    284.184  0.000e+00
     7.3741    3.57473    284.327  0.000e+00
     7.3783    3.57541    284.327  0.000e+00
     7.3279    3.57057    284.363  0.000e+00
     7.3104    3.56769    284.398  0.000e+00
     7.3176    3.56797    284.470  0.000e+00
     7.2922    3.56506    284.505  0.000e+00
     7.2321    3.55955    284.541  0.000e+00
     7.2500    3.56179    284.541  0.000e+00
     7.2736    3.56244    284.577  0.000e+00
     7.3741    3.57581    284.541  0.000e+00
     7.3729    3.57535    284.541  0.000e+00
     7.4774    3.58508    284.541  0.000e+00
     7.4472    3.58277    284.541  0.000e+00
     7.4737    3.58577    284.470  0.000e+00
     7.4006    3.57900    284.363  0.000e+00
     7.4918    3.58755    284.291  0.000e+00
     7.5083    3.58933    284.113  0.000e+00
     7.5056    3.58890    284.006  0.000e+00
     7.5128    3.58988    283.934  0.000e+00
     7.4926    3.58796    283.756  0.000e+00
     7.4528    3.58425    283.684  0.000e+00
     7.4918    3.58743    283.434  0.000e+00
     7.5033    3.58901    283.363  0.000e+00
     7.5043    3.58907    283.113  0.000e+00
     7.4826    3.58738    282.934  0.000e+00
     7.4842    3.58708    282.613  0.000e+00
     7.4859    3.58728    282.220  0.000e+00
     7.5044    3.58945    281.827  0.000e+00
     7.4876    3.58749    281.399  0.000e+00
     7.5014    3.58872    281.041  0.000e+00
     7.4992    3.58864    280.684  0.000e+00
     7.5017    3.58867    280.220  0.000e+00
     7.5017    3.58876    279.756  0.000e+00
     7.4986    3.58848    279.363  0.000e+00
     7.5059    3.58910    278.863  0.000e+00
     7.5183    3.59042    278.399  0.000e+00
     7.5053    3.58915    277.899  0.000e+00
     7.5060    3.58908    277.470  0.000e+00
     7.5217    3.59072    276.899  0.000e+00
     7.5170    3.59043    276.435  0.000e+00
     7.4582    3.58419    275.970  0.000e+00
     7.3662    3.57312    275.470  0.000e+00
     7.2609    3.56193    275.006  0.000e+00
     7.2365    3.55977    274.470  0.000e+00
     7.2350    3.55882    273.899  0.000e+00
     7.2210    3.55746    273.399  0.000e+00
     7.1876    3.55376    272.863  0.000e+00
     7.1993    3.55429    272.292  0.000e+00
     7.2719    3.56255    271.649  0.000e+00
     7.4034    3.57745    271.042  0.000e+00
     7.3860    3.57504    270.471  0.000e+00
     7.3253    3.56802    270.078  0.000e+00
     7.3242    3.56795    269.685  0.000e+00
     7.4564    3.58241    269.328  0.000e+00
     7.4847    3.58620    269.007  0.000e+00
     7.4837    3.58618    268.685  0.000e+00
     7.4919    3.58689    268.435  0.000e+00
     7.4820    3.58602    268.221  0.000e+00
     7.4696    3.58354    267.900  0.000e+00
     7.4503    3.58226    267.650  0.000e+00
     7.4296    3.57908    267.364  0.000e+00
     7.4367    3.58110    267.078  0.000e+00
     7.4631    3.58345    266.828  0.000e+00
     7.4401    3.58144    266.542  0.000e+00
     7.4838    3.58558    266.257  0.000e+00
     7.4897    3.58623    265.971  0.000e+00
     7.5069    3.58789    265.685  0.000e+00
     7.5120    3.58868    265.435  0.000e+00
     7.5066    3.58811    265.257  0.000e+00
     7.5131    3.58874    264.935  0.000e+00
     7.5060    3.58797    264.614  0.000e+00
     7.5181    3.58910    264.221  0.000e+00
     7.5092    3.58868    263.936  0.000e+00
     7.5457    3.59186    263.578  0.000e+00
     7.5548    3.59313    263.221  0.000e+00
     7.5554    3.59323    262.971  0.000e+00
     7.5557    3.59323    262.650  0.000e+00
     7.5552    3.59314    262.400  0.000e+00
     7.5536    3.59295    262.114  0.000e+00
     7.5471    3.59237    261.828  0.000e+00
     7.5529    3.59286    261.579  0.000e+00
     7.5556    3.59325    261.293  0.000e+00
     7.5580    3.59345    260.971  0.000e+00
     7.5384    3.59163    260.650  0.000e+00
     7.5349    3.59099    260.329  0.000e+00
     7.5521    3.59281    260.007  0.000e+00
     7.5426    3.59175    259.722  0.000e+00
     7.5535    3.59274    259.472  0.000e+00
     7.5432    3.59195    259.150  0.000e+00
     7.5481    3.59203    258.793  0.000e+00
     7.5377    3.59157    258.472  0.000e+00
     7.5181    3.58892    258.150  0.000e+00
     7.5152    3.58871    257.936  0.000e+00
     7.5138    3.58848    257.686  0.000e+00
     7.5337    3.59047    257.436  0.000e+00
     7.5488    3.59204    257.115  0.000e+00
     7.5459    3.59166    256.686  0.000e+00
     7.5399    3.59108    256.079  0.000e+00
     7.5508    3.59199    255.508  0.000e+00
     7.5518    3.59219    254.900  0.000e+00
     7.5524    3.59214    254.293  0.000e+00
     7.5513    3.59205    253.758  0.000e+00
     7.5524    3.59209    253.151  0.000e+00
     7.5524    3.59193    252.544  0.000e+00
     7.5378    3.59058    251.936  0.000e+00
     7.5320    3.58992    251.365  0.000e+00
     7.5412    3.59071    250.865  0.000e+00
     7.5402    3.59058    250.329  0.000e+00
     7.5436    3.59109    249.758  0.000e+00
     7.5419    3.59065    249.115  0.000e+00
     7.5364    3.59007    248.579  0.000e+00
     7.5348    3.58952    247.972  0.000e+00
     7.5368    3.58969    247.365  0.000e+00
     7.5326    3.58917    246.758  0.000e+00
     7.5404    3.59020    246.223  0.000e+00
     7.5412    3.59018    245.615  0.000e+00
     7.5363    3.58944    245.080  0.000e+00
     7.5399    3.58986    244.473  0.000e+00
     7.5411    3.58990    243.866  0.000e+00
     7.5586    3.59149    243.294  0.000e+00
     7.5232    3.58786    242.723  0.000e+00
     7.4850    3.58300    242.116  0.000e+00
     7.4301    3.57749    241.580  0.000e+00
     7.4659    3.58149    241.080  0.000e+00
     7.4390    3.57784    240.580  0.000e+00
     7.2743    3.55951    240.116  0.000e+00
     7.2466    3.55677    239.687  0.000e+00
     7.2094    3.55270    239.259  0.000e+00
     7.1523    3.54712    238.830  0.000e+00
     7.1222    3.54336    238.366  0.000e+00
     7.1096    3.54257    238.009  0.000e+00
     7.0737    3.53855    237.545  0.000e+00
     7.0965    3.54002    237.080  0.000e+00
     7.0560    3.53646    236.652  0.000e+00
     7.1368    3.54495    236.223  0.000e+00
     7.1689    3.54879    235.866  0.000e+00
     7.3857    3.57145    235.438  0.000e+00
     7.4076    3.57301    235.045  0.000e+00
     7.3029    3.56212    234.723  0.000e+00
     7.2660    3.55864    234.330  0.000e+00
     7.2450    3.55592    233.973  0.000e+00
     7.2187    3.55310    233.723  0.000e+00
     7.2219    3.55333    233.473  0.000e+00
     7.2325    3.55425    233.366  0.000e+00
     7.2502    3.55591    233.295  0.000e+00
     7.2769    3.55989    233.223  0.000e+00
     7.2875    3.56081    233.116  0.000e+00
     7.3679    3.56841    233.081  0.000e+00
     7.3401    3.56611    233.045  0.000e+00
     7.3578    3.56604    232.973  0.000e+00
     7.3526    3.56763    233.045  0.000e+00
     7.3868    3.57101    233.009  0.000e+00
     7.4190    3.57460    232.973  0.000e+00
     7.4573    3.57835    232.866  0.000e+00
     7.5195    3.58582    232.795  0.000e+00
     7.5646    3.59107    232.723  0.000e+00
     7.5756    3.59175    232.616  0.000e+00
     7.5191    3.58580    232.581  0.000e+00
     7.5333    3.58789    232.581  0.000e+00
     7.5447    3.58884    232.652  0.000e+00
     7.4232    3.57667    232.616  0.000e+00
     7.3125    3.56387    232.652  0.000e+00
     7.3103    3.56434    232.795  0.000e+00
     7.3318    3.56525    232.902  0.000e+00
     7.2954    3.56127    233.009  0.000e+00
     7.2559    3.55716    233.045  0.000e+00
     7.2816    3.55972    232.902  0.000e+00
     7.3013    3.56196    232.902  0.000e+00
     7.2522    3.55647    232.866  0.000e+00
     7.2557    3.55679    232.831  0.000e+00
     7.2701    3.55853    232.688  0.000e+00
     7.3202    3.56469    232.438  0.000e+00
     7.3879    3.57111    232.116  0.000e+00
     7.2422    3.55670    231.974  0.000e+00
     7.2449    3.55801    231.795  0.000e+00
     7.1833    3.54929    231.581  0.000e+00
     7.2034    3.55209    231.438  0.000e+00
     7.2091    3.55237    231.331  0.000e+00
     7.2454    3.55576    231.188  0.000e+00
     7.2422    3.55564    231.081  0.000e+00
     7.2741    3.55857    230.974  0.000e+00
     7.2722    3.55906    230.759  0.000e+00
     7.3823    3.57001    230.616  0.000e+00
     7.4662    3.58033    230.509  0.000e+00
     7.3883    3.57114    230.402  0.000e+00
     7.3758    3.57019    230.438  0.000e+00
     7.4427    3.57865    230.402  0.000e+00
     7.4709    3.58020    230.402  0.000e+00
     7.3609    3.56887    230.331  0.000e+00
     7.4010    3.57303    230.188  0.000e+00
     7.4081    3.57362    230.152  0.000e+00
     7.4090    3.57426    230.081  0.000e+00
     7.4093    3.57413    230.117  0.000e+00
     7.4267    3.57506    230.009  0.000e+00
     7.3995    3.57892    229.974  0.000e+00
     7.7389    3.60921    229.902  0.000e+00
     7.7305    3.60914    229.867  0.000e+00
     7.7234    3.60882    229.902  0.000e+00
     7.7173    3.60792    229.938  0.000e+00
     7.7030    3.60689    230.009  0.000e+00
     7.6861    3.60583    230.081  0.000e+00
     7.6812    3.60432    230.045  0.000e+00
     7.6549    3.60151    229.974  0.000e+00
     7.5697    3.59304    229.938  0.000e+00
     7.5340    3.58820    229.795  0.000e+00
     7.5361    3.58846    229.759  0.000e+00
     7.5403    3.58880    229.652  0.000e+00
     7.5515    3.59015    229.617  0.000e+00
     7.5425    3.58916    229.545  0.000e+00
     7.5276    3.58775    229.474  0.000e+00
     7.5338    3.58826    229.474  0.000e+00
     7.5617    3.59136    229.367  0.000e+00
     7.5551    3.59106    229.367  0.000e+00
     7.5599    3.59089    229.295  0.000e+00
     7.5373    3.58890    229.259  0.000e+00
     7.5381    3.58886    229.295  0.000e+00
     7.5489    3.59022    229.367  0.000e+00
     7.5576    3.59117    229.438  0.000e+00
     7.6064    3.59771    229.474  0.000e+00
     7.6345    3.59975    229.509  0.000e+00
     7.7190    3.60327    229.545  0.000e+00
     7.6998    3.60749    229.652  0.000e+00
     7.6829    3.60480    229.688  0.000e+00
     7.6826    3.60489    229.688  0.000e+00
     7.6628    3.60284    229.688  0.000e+00
     7.6508    3.60142    229.652  0.000e+00
     7.6412    3.60037    229.545  0.000e+00
     7.6453    3.60092    229.474  0.000e+00
     7.5978    3.59627    229.402  0.000e+00
     7.6174    3.59697    229.331  0.000e+00
     7.5840    3.59479    229.224  0.000e+00
     7.6375    3.60005    229.081  0.000e+00
     7.5770    3.59496    229.009  0.000e+00
     7.5749    3.59360    228.938  0.000e+00
     7.5768    3.59387    228.831  0.000e+00
     7.5529    3.59183    228.795  0.000e+00
     7.5511    3.59132    228.759  0.000e+00
     7.5139    3.58744    228.688  0.000e+00
     7.5107    3.58658    228.617  0.000e+00
     7.4726    3.58309    228.509  0.000e+00
     7.4225    3.57804    228.402  0.000e+00
     7.4175    3.57651    228.260  0.000e+00
     7.3764    3.57234    228.117  0.000e+00
     7.3839    3.57298    228.010  0.000e+00
     7.4099    3.57536    227.902  0.000e+00
     7.4381    3.57860    227.831  0.000e+00
     7.4294    3.57750    227.688  0.000e+00
     7.4119    3.57610    227.545  0.000e+00
     7.4652    3.58120    227.331  0.000e+00
     7.4736    3.58218    227.117  0.000e+00
     7.4905    3.58424    226.795  0.000e+00
     7.5074    3.58623    226.403  0.000e+00
     7.4738    3.58200    226.081  0.000e+00
     7.5113    3.58608    225.760  0.000e+00
     7.5060    3.58628    225.403  0.000e+00
     7.5114    3.58675    224.974  0.000e+00
     7.5142    3.58671    224.545  0.000e+00
     7.5254    3.58824    224.081  0.000e+00
     7.4990    3.58408    223.581  0.000e+00
     7.4350    3.57906    223.153  0.000e+00
     7.4376    3.57949    222.724  0.000e+00
     7.4468    3.57964    222.260  0.000e+00
     7.4391    3.57887    221.939  0.000e+00
     7.4192    3.57677    221.617  0.000e+00
     7.3965    3.57460    221.296  0.000e+00
     7.3766    3.57204    221.010  0.000e+00
     7.3533    3.56936    220.689  0.000e+00
     7.2908    3.56288    220.331  0.000e+00
     7.2768    3.56125    219.903  0.000e+00
     7.2635    3.55975    219.474  0.000e+00
     7.2650    3.55973    219.046  0.000e+00
     7.2055    3.55319    218.653  0.000e+00
     7.1788    3.55016    218.260  0.000e+00
     7.1987    3.55195    217.832  0.000e+00
     7.2131    3.55340    217.475  0.000e+00
     7.2162    3.55387    217.082  0.000e+00
     7.2222    3.55431    216.653  0.000e+00
     7.2238    3.55532    216.260  0.000e+00
     7.2351    3.55573    215.832  0.000e+00
     7.2453    3.55698    215.368  0.000e+00
     7.2514    3.55751    214.975  0.000e+00
     7.2942    3.56224    214.546  0.000e+00
     7.3624    3.57003    214.189  0.000e+00
     7.4295    3.57721    213.832  0.000e+00
     7.4469    3.57900    213.475  0.000e+00
     7.4648    3.58101    213.153  0.000e+00
     7.4772    3.58195    212.761  0.000e+00
     7.4851    3.58321    212.403  0.000e+00
     7.4883    3.58355    212.082  0.000e+00
     7.5259    3.58740    211.796  0.000e+00
     7.5444    3.58944    211.439  0.000e+00
     7.5506    3.59002    211.118  0.000e+00
     7.5833    3.59367    210.796  0.000e+00
     7.5647    3.59202    210.511  0.000e+00
     7.6032    3.59478    210.154  0.000e+00
     7.6077    3.59616    209.868  0.000e+00
     7.6118    3.59653    209.547  0.000e+00
     7.6089    3.59628    209.189  0.000e+00
     7.6075    3.59589    208.832  0.000e+00
     7.6140    3.59654    208.475  0.000e+00
